File: notebook/K309/K309.msa
#FORMAT      : EMSA/MAS SPECTRAL DATA FILE
#VERSION     : 1.0
#TITLE       : Bruker AXS spectrum K309
#DATE        : 09-JUL-2008
#TIME        : 14:04
#OWNER       : Bruker AXS
#NPOINTS     : 4096.0
#NCOLUMNS    : 4.0
#XUNITS      : keV
#YUNITS      : Counts
#DATATYPE    : Y
#XPERCHAN    : 0.0050000
#OFFSET      : -0.4757000
#SIGNALTYPE  : EDS
#CHOFFSET    : 95
#BEAMKV   -kV: 15.0
#PROBECUR -nA: 3.93
#ELEVANGLE   : 35.0
#AZIMANGLE   : 0.0
#XTILTSTGE   : 0.0
#YTILTSTGE   : 0.0
#LIVETIME  -s: 59.339
#REALTIME  -s: 64.307
##RTDET      : XFlash 4040
#EDSDET      :
#TDEADLYR -cm: 0.000008
#TACTLYR  -cm: 0.045
##FANO       : 0.1030000
##MNFWHM -keV: 0.1221482
##IDENT      :
#SPECTRUM    :
         0.0,         0.0,         0.0,         0.0,
         0.0,         0.0,         0.0,         0.0,
         0.0,         0.0,         0.0,         0.0,
         0.0,         0.0,         0.0,         0.0,
    165569.0,    142933.0,    111661.0,     78008.0,
       110.0,       105.0,       111.0,       118.0,
       517.0,       593.0,       684.0,       778.0,
       412.0,       412.0,       405.0,       403.0,
      7545.0,     10241.0,     13486.0,     16938.0,
      1001.0,       951.0,       973.0,      1002.0,
      2324.0,      2233.0,      1904.0,      1660.0,
       638.0,       657.0,       627.0,       604.0,
       815.0,       833.0,       833.0,       840.0,
       802.0,       802.0,       810.0,       832.0,
       819.0,       841.0,       822.0,       815.0,
       924.0,       906.0,       935.0,       895.0,
      4594.0,      5502.0,      6605.0,      7782.0,
      1771.0,      1600.0,      1446.0,      1244.0,
      5327.0,      6499.0,      8518.0,     10387.0,
      5600.0,      4577.0,      3824.0,      3123.0,
       671.0,       650.0,       650.0,       683.0,
       669.0,       609.0,       660.0,       620.0,
       644.0,       636.0,       612.0,       610.0,
       606.0,       629.0,       669.0,       646.0,
       622.0,       582.0,       593.0,       610.0,
       580.0,       586.0,       574.0,       600.0,
       530.0,       558.0,       508.0,       591.0,
       517.0,       537.0,       556.0,       531.0,
       450.0,       515.0,       568.0,       518.0,
       560.0,       488.0,       525.0,       505.0,
       492.0,       542.0,       482.0,       509.0,
       477.0,       465.0,       493.0,       482.0,
       482.0,       419.0,       442.0,       437.0,
       485.0,       456.0,       484.0,       426.0,
      1153.0,      1275.0,      1536.0,      1819.0,
      6011.0,      5515.0,      5065.0,      4675.0,
       445.0,       406.0,       464.0,       363.0,
       878.0,       880.0,      1031.0,      1024.0,
       611.0,       638.0,       606.0,       531.0,
       346.0,       315.0,       330.0,       301.0,
       371.0,       377.0,       393.0,       363.0,
      2090.0,      2187.0,      2360.0,      2312.0,
       566.0,       537.0,       484.0,       464.0,
       292.0,       318.0,       298.0,       335.0,
      1068.0,      1032.0,      1097.0,      1139.0,
       609.0,       606.0,       563.0,       530.0,
       274.0,       293.0,       287.0,       305.0,
       574.0,       570.0,       555.0,       559.0,
       230.0,       241.0,       237.0,       228.0,
       246.0,       217.0,       249.0,       244.0,
       338.0,       344.0,       358.0,       353.0,
       204.0,       205.0,       229.0,       199.0,
       237.0,       250.0,       253.0,       236.0,
       222.0,       207.0,       224.0,       235.0,
       184.0,       191.0,       197.0,       190.0,
       164.0,       186.0,       194.0,       153.0,
       214.0,       231.0,       217.0,       245.0,
      1539.0,      1611.0,      1660.0,      1808.0,
       707.0,       665.0,       578.0,       519.0,
       155.0,       171.0,       151.0,       160.0,
       166.0,       172.0,       139.0,       157.0,
       172.0,       177.0,       143.0,       142.0,
       202.0,       226.0,       231.0,       253.0,
       330.0,       312.0,       328.0,       314.0,
       150.0,       157.0,       129.0,       130.0,
       110.0,       104.0,       136.0,       128.0,
       138.0,       159.0,       128.0,       118.0,
       129.0,       114.0,       118.0,       113.0,
       121.0,       114.0,       113.0,        98.0,
       107.0,       108.0,       113.0,        98.0,
       121.0,       117.0,       124.0,       110.0,
       100.0,        85.0,       109.0,       113.0,
        92.0,       115.0,        99.0,        98.0,
       102.0,        90.0,        92.0,       111.0,
       103.0,       104.0,        91.0,       120.0,
        79.0,        90.0,        92.0,        82.0,
        85.0,        83.0,        84.0,        84.0,
        80.0,        88.0,        87.0,        87.0,
        82.0,        68.0,        78.0,        71.0,
        71.0,        80.0,        82.0,        84.0,
        76.0,        78.0,        79.0,        78.0,
        67.0,        79.0,        70.0,        61.0,
        72.0,        64.0,        60.0,        69.0,
        76.0,        66.0,        73.0,        78.0,
        61.0,        60.0,        68.0,        71.0,
        48.0,        51.0,        63.0,        63.0,
        64.0,        75.0,        63.0,        58.0,
        55.0,        54.0,        53.0,        48.0,
        66.0,        61.0,        54.0,        58.0,
        56.0,        40.0,        43.0,        48.0,
        55.0,        58.0,        51.0,        53.0,
        54.0,        58.0,        43.0,        62.0,
        51.0,        49.0,        62.0,        50.0,
        40.0,        53.0,        43.0,        42.0,
        47.0,        55.0,        34.0,        33.0,
        42.0,        47.0,        50.0,        43.0,
        38.0,        34.0,        30.0,        30.0,
        31.0,        41.0,        34.0,        39.0,
        36.0,        26.0,        37.0,        40.0,
        22.0,        34.0,        36.0,        44.0,
        45.0,        21.0,        35.0,        33.0,
        24.0,        27.0,        20.0,        35.0,
        31.0,        31.0,        21.0,        24.0,
        31.0,        33.0,        28.0,        34.0,
        26.0,        22.0,        30.0,        39.0,
        29.0,        23.0,        25.0,        16.0,
        31.0,        14.0,        21.0,        38.0,
        20.0,        30.0,        17.0,        18.0,
        14.0,        19.0,        26.0,        20.0,
        23.0,        13.0,        18.0,        16.0,
        11.0,        13.0,        18.0,        29.0,
        12.0,        15.0,        15.0,        13.0,
        17.0,        13.0,        12.0,        16.0,
        13.0,        13.0,        15.0,        18.0,
        13.0,        13.0,        13.0,         5.0,
         8.0,        11.0,         8.0,        13.0,
        10.0,        11.0,        13.0,        13.0,
         7.0,         9.0,         6.0,        12.0,
         5.0,         7.0,        10.0,         7.0,
        14.0,         6.0,         5.0,         4.0,
         7.0,         3.0,         6.0,         7.0,
         8.0,         5.0,         7.0,         3.0,
         4.0,         7.0,         6.0,         5.0,
         1.0,         4.0,         3.0,         6.0,
         5.0,         3.0,         4.0,         4.0,
         4.0,         0.0,         3.0,         0.0,
         2.0,         3.0,         0.0,         2.0,
         0.0,         2.0,         2.0,         0.0,
         0.0,         1.0,         3.0,         0.0,
         1.0,         0.0,         0.0,         0.0,
         0.0,         0.0,         0.0,         0.0,
         0.0,         0.0,         0.0,         0.0,
         0.0,         0.0,         0.0,         0.0,
         0.0,         0.0,         0.0,         0.0,
         0.0,         0.0,         0.0,         0.0,
         0.0,         0.0,         0.0,         0.0,
         0.0,         0.0,         0.0,         0.0,
         0.0,         0.0,         0.0,         0.0,
         0.0,         0.0,         0.0,         0.0,
         1.0,         0.0,         0.0,         0.0,
         0.0,         0.0,         0.0,         0.0,
         0.0,         0.0,         0.0,         0.0,
         0.0,         0.0,         0.0,         0.0,
         0.0,         0.0,         0.0,         0.0,
         0.0,         0.0,         0.0,         0.0,
         0.0,         0.0,         0.0,         0.0,
         0.0,         0.0,         0.0,         0.0,
         0.0,         0.0,         0.0,         0.0,
         0.0,         0.0,         0.0,         0.0,
         0.0,         0.0,         0.0,         0.0,
         0.0,         0.0,         0.0,         0.0,
         0.0,         0.0,         0.0,         0.0,
         0.0,         0.0,         0.0,         0.0,
         0.0,         0.0,         0.0,         0.0,
         0.0,         0.0,         0.0,         0.0,
         0.0,         0.0,         0.0,         0.0,
         0.0,         0.0,         0.0,         0.0,
         0.0,         0.0,         0.0,         0.0,
         0.0,         0.0,         0.0,         0.0,
         0.0,         0.0,         0.0,         0.0,
         0.0,         0.0,         0.0,         0.0,
         0.0,         0.0,         0.0,         0.0,
         0.0,         0.0,         0.0,         0.0,
         0.0,         0.0,         0.0,         0.0,
         0.0,         0.0,         0.0,         0.0,
         0.0,         0.0,         0.0,         0.0,
         0.0,         0.0,         0.0,         0.0,
         0.0,         0.0,         0.0,         0.0,
         0.0,         0.0,         0.0,         0.0,
         0.0,         0.0,         0.0,         0.0,
         0.0,         0.0,         0.0,         0.0,
         0.0,         0.0,         0.0,         0.0,
#ENDOFDATA   :