File: notebook/K309/Zn std.msa
#FORMAT      : EMSA/MAS Spectral Data File
#VERSION     : 1.0
#TITLE       : Bruker AXS spectrum Zn
#DATE        : 29-JUL-2008
#TIME        : 10:26
#OWNER       : Bruker AXS
#NPOINTS     : 4096
#NCOLUMNS    : 4
#XUNITS      : eV
#YUNITS      : counts
#DATATYPE    : Y
#XPERCHAN    : 5.00409
#OFFSET      : -477.824
#BEAMKV      : 15
#SIGNALTYPE  : EDS
#ELEVANGLE   : 40
#AZIMANGLE   : 180
#LIVETIME    : 59.358
#REALTIME    : 64.71
#PROBECUR    : 2.5
#TAUWIND     : 0
#TDEADLYR    : 0.00001
#TACTLYR     : 0.045
#TALWIND     : 0.003
#CHOFFSET    : 0.0
#XLABEL      : Energy (eV)
#YLABEL      : Counts
#EDSDET      : SDDUTW
##D2STDCMP   : Zn,(Zn:100.0),5.0
#SPECTRUM    :
0, 0, 0, 0,
0, 0, 0, 0,
0, 0, 0, 0,
0, 0, 0, 0,
0, 0, 0, 0,
1, 7, 22, 88,
212595, 182782, 142327, 99653,
33, 78, 129, 165,
139, 137, 137, 139,
392, 445, 501, 546,
227, 211, 228, 230,
353, 352, 370, 387,
695, 788, 887, 926,
765, 683, 635, 712,
902, 900, 942, 927,
1293, 1259, 1193, 1232,
1623, 1652, 1778, 1902,
7392, 7652, 7505, 7485,
15470, 20221, 26646, 33619,
53605, 44284, 36098, 28390,
924, 831, 737, 656,
439, 449, 419, 412,
414, 458, 406, 383,
432, 463, 479, 481,
505, 480, 495, 546,
519, 541, 557, 545,
499, 581, 532, 576,
553, 551, 546, 607,
605, 623, 610, 643,
628, 579, 617, 623,
561, 589, 618, 557,
657, 721, 698, 731,
627, 606, 583, 565,
566, 607, 538, 571,
607, 672, 547, 586,
658, 563, 623, 597,
583, 603, 597, 578,
594, 590, 588, 547,
584, 633, 580, 636,
597, 589, 588, 563,
531, 587, 553, 529,
580, 601, 545, 593,
560, 524, 606, 540,
520, 517, 584, 551,
520, 535, 543, 552,
513, 512, 499, 513,
532, 507, 510, 515,
550, 490, 455, 488,
497, 481, 483, 501,
483, 500, 486, 512,
451, 475, 446, 473,
432, 451, 477, 489,
482, 430, 421, 429,
478, 434, 406, 445,
407, 417, 408, 442,
420, 430, 415, 428,
398, 391, 402, 408,
385, 398, 380, 388,
426, 378, 411, 410,
338, 368, 380, 388,
371, 412, 364, 364,
379, 345, 378, 338,
355, 343, 367, 371,
329, 347, 343, 329,
350, 314, 350, 344,
306, 327, 354, 340,
350, 327, 306, 336,
295, 310, 289, 275,
310, 300, 304, 305,
288, 304, 296, 299,
304, 283, 297, 268,
300, 300, 263, 295,
292, 258, 278, 287,
282, 260, 260, 306,
273, 277, 258, 257,
246, 260, 249, 265,
271, 270, 245, 278,
245, 271, 236, 252,
256, 226, 251, 237,
247, 218, 255, 210,
253, 233, 211, 200,
233, 206, 230, 232,
223, 233, 239, 193,
227, 226, 226, 220,
217, 211, 205, 205,
232, 196, 216, 229,
226, 218, 214, 219,
207, 216, 208, 189,
213, 192, 200, 184,
220, 174, 203, 182,
177, 206, 175, 168,
174, 154, 151, 198,
168, 189, 159, 180,
142, 194, 167, 154,
168, 185, 183, 178,
179, 178, 170, 169,
169, 155, 157, 158,
183, 158, 158, 160,
185, 167, 161, 156,
153, 171, 163, 164,
171, 167, 179, 141,
153, 146, 144, 128,
142, 145, 133, 154,
140, 137, 134, 108,
156, 132, 122, 157,
158, 150, 139, 114,
114, 136, 110, 133,
128, 142, 128, 129,
143, 129, 143, 120,
142, 122, 126, 135,
129, 133, 133, 134,
150, 148, 159, 151,
474, 458, 610, 706,
2529, 2754, 3056, 3197,
3909, 3756, 3774, 3622,
1387, 1277, 1111, 976,
200, 182, 174, 167,
122, 92, 106, 112,
109, 101, 93, 113,
101, 111, 82, 91,
107, 121, 95, 103,
90, 106, 94, 112,
85, 109, 108, 105,
109, 102, 88, 104,
220, 212, 230, 253,
517, 540, 555, 559,
511, 495, 500, 501,
202, 170, 186, 167,
95, 81, 70, 99,
70, 81, 65, 72,
86, 71, 73, 68,
76, 86, 73, 61,
81, 70, 60, 76,
71, 71, 53, 81,
71, 65, 69, 75,
65, 68, 67, 68,
56, 54, 54, 56,
65, 68, 72, 59,
70, 57, 56, 57,
58, 49, 52, 57,
51, 51, 53, 57,
54, 61, 71, 63,
49, 56, 55, 49,
51, 51, 31, 60,
51, 53, 54, 35,
46, 45, 53, 43,
38, 52, 45, 46,
42, 49, 35, 51,
46, 35, 38, 37,
48, 33, 44, 50,
42, 32, 35, 46,
53, 49, 51, 28,
41, 26, 41, 35,
39, 42, 37, 31,
31, 44, 32, 28,
37, 32, 39, 46,
35, 36, 38, 37,
27, 31, 28, 33,
30, 30, 38, 28,
24, 26, 28, 35,
33, 26, 30, 25,
22, 19, 29, 29,
31, 28, 21, 28,
24, 28, 19, 27,
27, 21, 27, 28,
23, 30, 14, 29,
19, 25, 11, 29,
13, 22, 16, 29,
23, 23, 27, 27,
15, 23, 18, 23,
12, 15, 18, 14,
20, 11, 18, 15,
16, 22, 12, 17,
23, 16, 16, 20,
18, 21, 14, 8,
11, 15, 16, 16,
11, 17, 19, 13,
10, 17, 10, 7,
11, 14, 13, 15,
17, 10, 11, 11,
11, 14, 12, 5,
13, 10, 15, 13,
8, 14, 12, 6,
8, 4, 3, 11,
6, 5, 5, 9,
5, 8, 5, 6,
9, 4, 9, 7,
5, 4, 4, 9,
4, 1, 7, 4,
4, 4, 2, 3,
2, 4, 4, 3,
3, 5, 3, 3,
3, 1, 0, 0,
0, 1, 0, 0,
1, 0, 1, 0,
1, 0, 0, 0,
0, 0, 0, 0,
0, 0, 1, 0,
0, 0, 0, 0,
0, 0, 0, 0,
0, 0, 1, 0,
0, 0, 0, 0,
0, 0, 0, 0,
0, 0, 0, 0,
0, 0, 0, 0,
0, 0, 0, 0,
0, 0, 0, 0,
0, 0, 0, 0,
0, 0, 0, 0,
0, 0, 0, 0,
0, 0, 0, 0,
0, 0, 0, 0,
0, 0, 0, 0,
1, 0, 0, 1,
0, 0, 0, 0,
0, 0, 0, 0,
0, 0, 0, 0,
0, 0, 0, 0,
0, 0, 0, 0,
1, 0, 0, 0,
0, 0, 0, 1,
0, 0, 0, 1,
0, 0, 0, 0,
0, 0, 0, 0,
0, 0, 0, 0,
0, 0, 0, 0,
0, 0, 0, 0,
0, 0, 0, 0,
0, 0, 0, 0,
0, 0, 0, 0,
0, 0, 0, 0,
0, 0, 0, 0,
0, 0, 0, 0,
0, 0, 0, 0,
0, 0, 0, 0,
0, 0, 0, 0,
0, 0, 0, 0,
0, 0, 0, 0,
0, 0, 0, 0,
0, 0, 0, 0,
0, 0, 0, 0,
0, 0, 0, 0,
0, 1, 0, 0,
0, 0, 0, 0,
0, 0, 0, 0,
0, 0, 0, 0,
0, 0, 0, 0,
0, 0, 0, 0,
0, 0, 0, 0,
0, 0, 0, 0,
0, 0, 0, 0,
0, 0, 0, 0,
0, 0, 0, 0,
0, 0, 0, 0,
0, 0, 0, 0,
0, 0, 0, 0,
0, 0, 0, 0,
#ENDOFDATA   :