File: weave/spectra/Ag std.msa
#FORMAT      : EMSA/MAS Spectral Data File
#VERSION     : 1.0
#TITLE       : Ag std
#DATE        : 15-MAY-2018
#TIME        : 01:52
#OWNER       : Unknown
#NPOINTS     : 4096
#NCOLUMNS    : 1
#XUNITS      : eV
#YUNITS      : counts
#DATATYPE    : Y
#XPERCHAN    : 9.99856
#OFFSET      : 1.63032
#BEAMKV      : 25
#SIGNALTYPE  : EDS
#ELEVANGLE   : 35
#AZIMANGLE   : 0
#LIVETIME    : 1210.86
#REALTIME    : 1713.6
#PROBECUR    : 0.93864
#TDEADLYR    : 0
#TACTLYR     : 0.045
#TALWIND     : 0.003
#CHOFFSET    : 0.0
#XLABEL      : Energy (eV)
#YLABEL      : Counts
#EDSDET      : SDUTW
##SPECIMEN   : Ag std
##D2STDCMP   : Ag,(Ag:100.0),5.0
##DET_HASH   : 97086dfe-e5c2-9c77-3984-1d0b14bbbf41
##CALIB_HASH : 1a36e884-c26d-3547-51b1-d0bb2efdf95a
##WORKING    : 16.99 mm
##SAMPLE     : <BulkSample id="1">\n<mOrientation id="2">\n<double>0.0</double>\n<double>0.0</double>\n<double>-1.0</double>\n</mOrientation>\n</BulkSample>
#SPECTRUM    :
19,
216,
52386,
13506,
27241,
21755,
19962,
25014,
31477,
63496,
52563,
49085,
46988,
50181,
49612,
53120,
74078,
59653,
59792,
133939,
86629,
1117534,
467381,
509113,
235755,
77611,
29197,
39515,
25801,
24240,
25553,
25060,
25724,
25140,
25242,
25134,
25672,
25876,
25773,
26862,
25446,
24895,
25975,
27648,
26901,
26092,
28026,
23009,
22593,
21975,
22280,
21777,
20868,
21547,
20443,
19626,
19306,
19382,
18920,
18660,
18223,
17985,
17851,
17424,
16500,
16346,
16085,
15877,
15348,
15395,
14975,
16736,
15338,
13870,
13707,
13899,
13188,
12543,
12296,
11938,
11611,
11235,
11153,
10884,
11233,
11375,
10405,
9770,
9373,
9157,
9544,
8816,
8366,
8252,
7753,
7703,
7414,
7074,
6908,
6874,
6432,
6235,
6009,
5862,
5548,
5338,
5242,
5059,
4762,
4760,
4565,
4349,
4410,
4158,
3941,
3742,
3598,
3506,
3291,
3151,
3045,
2896,
2798,
2621,
2566,
2437,
2347,
2290,
2070,
1979,
2024,
1854,
1766,
1701,
1595,
1553,
1427,
1412,
1355,
1238,
1203,
1115,
1060,
1038,
974,
948,
871,
819,
738,
707,
672,
609,
596,
552,
536,
467,
416,
402,
397,
353,
305,
305,
285,
260,
221,
211,
181,
156,
133,
129,
126,
99,
82,
72,
50,
40,
35,
15,
11,
6,
4,
2,
0,
4,
2,
3,
3,
2,
1,
1,
4,
3,
1,
1,
3,
3,
3,
0,
1,
3,
2,
0,
1,
2,
0,
1,
1,
0,
1,
1,
1,
1,
0,
1,
1,
0,
0,
0,
1,
2,
0,
3,
0,
0,
0,
0,
0,
0,
0,
0,
0,
0,
0,
0,
1,
0,
0,
0,
0,
0,
0,
0,
0,
0,
0,
0,
1,
0,
0,
0,
0,
0,
0,
0,
0,
0,
0,
0,
0,
0,
0,
0,
0,
0,
0,
0,
0,
0,
0,
0,
0,
0,
0,
0,
0,
0,
0,
0,
0,
0,
0,
0,
0,
0,
0,
0,
0,
0,
0,
0,
0,
0,
0,
0,
#ENDOFDATA   :