File: weave/spectra/Au std.msa
#FORMAT      : EMSA/MAS Spectral Data File
#VERSION     : 1.0
#TITLE       : Au std
#DATE        : 15-MAY-2018
#TIME        : 02:52
#OWNER       : Unknown
#NPOINTS     : 4096
#NCOLUMNS    : 1
#XUNITS      : eV
#YUNITS      : counts
#DATATYPE    : Y
#XPERCHAN    : 9.99856
#OFFSET      : 1.63032
#BEAMKV      : 25
#SIGNALTYPE  : EDS
#ELEVANGLE   : 35
#AZIMANGLE   : 0
#LIVETIME    : 1161.13
#REALTIME    : 1829.08
#PROBECUR    : 0.9413
#TDEADLYR    : 0
#TACTLYR     : 0.045
#TALWIND     : 0.003
#CHOFFSET    : 0.0
#XLABEL      : Energy (eV)
#YLABEL      : Counts
#EDSDET      : SDUTW
##SPECIMEN   : Au std
##D2STDCMP   : Au,(Au:100.0),9.0
##DET_HASH   : 97086dfe-e5c2-9c77-3984-1d0b14bbbf41
##CALIB_HASH : 1a36e884-c26d-3547-51b1-d0bb2efdf95a
##WORKING    : 16.99 mm
##SAMPLE     : <BulkSample id="1">\n<mOrientation id="2">\n<double>0.0</double>\n<double>0.0</double>\n<double>-1.0</double>\n</mOrientation>\n</BulkSample>
#SPECTRUM    :
23,
229,
30995,
38746,
22224,
30180,
36956,
45586,
54034,
62940,
69415,
80447,
168028,
81677,
107894,
1656110,
930380,
79064,
37292,
39895,
50446,
36208,
37101,
36277,
37772,
36932,
37864,
38972,
39264,
39912,
42333,
45282,
41542,
40744,
40452,
40545,
40496,
39666,
39744,
39983,
39156,
38424,
38286,
37291,
37178,
37346,
38738,
35582,
34846,
34588,
34443,
33050,
32652,
33041,
32087,
31327,
30616,
30642,
29595,
29303,
34829,
41834,
28244,
27533,
26684,
26614,
25794,
26229,
43898,
278314,
168945,
26999,
23042,
23562,
23755,
22127,
21521,
20064,
19782,
22449,
31311,
62055,
127371,
83802,
25736,
22481,
16570,
14416,
13688,
13391,
14216,
13049,
12740,
12625,
12492,
21594,
22791,
13022,
14855,
12047,
9888,
9423,
9412,
9025,
8292,
8069,
7794,
7545,
7445,
7074,
6819,
6918,
6639,
6504,
6060,
5926,
5593,
5464,
5280,
5027,
4749,
4766,
4518,
4325,
4082,
4056,
3958,
3740,
3578,
3490,
3285,
3145,
2995,
2866,
2856,
2539,
2496,
2446,
2365,
2258,
2159,
1891,
1928,
1786,
1735,
1660,
1529,
1447,
1418,
1362,
1232,
1217,
1179,
1093,
964,
905,
791,
768,
711,
678,
594,
586,
550,
547,
491,
457,
350,
339,
330,
295,
256,
211,
170,
159,
124,
95,
91,
61,
40,
19,
16,
13,
9,
11,
11,
12,
10,
6,
4,
9,
2,
6,
6,
9,
8,
5,
3,
1,
7,
4,
2,
2,
3,
6,
1,
1,
3,
2,
4,
2,
1,
3,
3,
1,
1,
1,
1,
0,
2,
1,
0,
1,
1,
2,
1,
1,
1,
2,
1,
1,
1,
0,
0,
1,
1,
0,
1,
2,
0,
1,
0,
1,
1,
0,
1,
0,
0,
0,
1,
0,
0,
0,
0,
0,
0,
0,
0,
0,
0,
0,
0,
0,
0,
1,
0,
0,
0,
0,
0,
0,
0,
0,
0,
0,
0,
0,
0,
0,
0,
0,
0,
0,
0,
0,
0,
0,
0,
0,
0,
0,
0,
0,
0,
0,
#ENDOFDATA   :