File: weave/spectra/B std.msa
#FORMAT      : EMSA/MAS Spectral Data File
#VERSION     : 1.0
#TITLE       : B std
#DATE        : 15-MAY-2018
#TIME        : 09:02
#OWNER       : Unknown
#NPOINTS     : 4096
#NCOLUMNS    : 1
#XUNITS      : eV
#YUNITS      : counts
#DATATYPE    : Y
#XPERCHAN    : 9.99856
#OFFSET      : 1.63032
#BEAMKV      : 25
#SIGNALTYPE  : EDS
#ELEVANGLE   : 35
#AZIMANGLE   : 0
#LIVETIME    : 1196.59
#REALTIME    : 1233.63
#PROBECUR    : 0.95111
#TDEADLYR    : 0
#TACTLYR     : 0.045
#TALWIND     : 0.003
#CHOFFSET    : 0.0
#XLABEL      : Energy (eV)
#YLABEL      : Counts
#EDSDET      : SDUTW
##SPECIMEN   : B std
##D2STDCMP   : B,(B:100.0),5.0
##DET_HASH   : 97086dfe-e5c2-9c77-3984-1d0b14bbbf41
##CALIB_HASH : 1a36e884-c26d-3547-51b1-d0bb2efdf95a
##WORKING    : 16.99 mm
##SAMPLE     : <BulkSample id="1">\n<mOrientation id="2">\n<double>0.0</double>\n<double>0.0</double>\n<double>-1.0</double>\n</mOrientation>\n</BulkSample>
#SPECTRUM    :
26,
5054,
2477,
1436,
2951,
5902,
8592,
12455,
15376,
17701,
17742,
17879,
17039,
16263,
14037,
13557,
12814,
11925,
11221,
10538,
9889,
9380,
8909,
8209,
7670,
7370,
7378,
6682,
6195,
5968,
5771,
5325,
5048,
4791,
4714,
4475,
4234,
4023,
3846,
3899,
3541,
3362,
3454,
3110,
2928,
3195,
4105,
2732,
2631,
2588,
2481,
2319,
2286,
2185,
2133,
1971,
1934,
1893,
1810,
1830,
1682,
1633,
1529,
1485,
1535,
1438,
1340,
1371,
1292,
1308,
1250,
1147,
1149,
1106,
1035,
1082,
1056,
977,
908,
872,
827,
765,
775,
786,
689,
721,
717,
605,
598,
617,
628,
547,
557,
508,
468,
490,
475,
422,
389,
406,
390,
384,
310,
337,
326,
321,
284,
289,
254,
288,
256,
255,
213,
200,
200,
193,
167,
165,
154,
158,
156,
137,
138,
129,
96,
104,
116,
91,
85,
92,
75,
80,
73,
69,
65,
65,
51,
68,
58,
57,
46,
50,
44,
34,
36,
45,
33,
34,
35,
27,
19,
14,
12,
14,
15,
12,
19,
16,
7,
9,
14,
11,
7,
7,
7,
2,
7,
5,
5,
1,
3,
2,
1,
2,
0,
1,
1,
0,
0,
0,
0,
0,
0,
0,
0,
0,
0,
0,
0,
0,
0,
0,
0,
0,
0,
0,
0,
0,
0,
0,
0,
0,
0,
0,
0,
0,
0,
0,
0,
0,
0,
0,
0,
0,
0,
0,
0,
0,
0,
0,
0,
0,
0,
0,
0,
0,
0,
0,
0,
0,
0,
0,
0,
0,
0,
0,
0,
0,
0,
0,
0,
0,
0,
0,
0,
0,
0,
0,
0,
0,
0,
0,
0,
0,
0,
0,
0,
0,
0,
0,
0,
0,
0,
0,
0,
0,
0,
0,
0,
0,
0,
0,
0,
0,
0,
0,
0,
0,
0,
0,
0,
0,
0,
0,
0,
0,
0,
0,
0,
0,
0,
0,
0,
0,
#ENDOFDATA   :