File: weave/spectra/Bi std.msa
#FORMAT      : EMSA/MAS Spectral Data File
#VERSION     : 1.0
#TITLE       : Bi std
#DATE        : 16-MAY-2018
#TIME        : 03:11
#OWNER       : Unknown
#NPOINTS     : 4096
#NCOLUMNS    : 1
#XUNITS      : eV
#YUNITS      : counts
#DATATYPE    : Y
#XPERCHAN    : 9.99856
#OFFSET      : 1.63032
#BEAMKV      : 25
#SIGNALTYPE  : EDS
#ELEVANGLE   : 35
#AZIMANGLE   : 0
#LIVETIME    : 1133.18
#REALTIME    : 1760.53
#PROBECUR    : 0.90981
#TDEADLYR    : 0
#TACTLYR     : 0.045
#TALWIND     : 0.003
#CHOFFSET    : 0.0
#XLABEL      : Energy (eV)
#YLABEL      : Counts
#EDSDET      : SDUTW
##SPECIMEN   : Bi std
##D2STDCMP   : Bi,(Bi:100.0),5.0
##DET_HASH   : 97086dfe-e5c2-9c77-3984-1d0b14bbbf41
##CALIB_HASH : 1a36e884-c26d-3547-51b1-d0bb2efdf95a
##WORKING    : 17.0 mm
##SAMPLE     : <BulkSample id="1">\n<mOrientation id="2">\n<double>0.0</double>\n<double>0.0</double>\n<double>-1.0</double>\n</mOrientation>\n</BulkSample>
#SPECTRUM    :
34,
378,
36174,
17953,
32405,
72111,
36936,
40520,
45698,
53343,
59749,
65275,
66137,
89585,
95406,
74370,
103919,
976131,
1273484,
77347,
60059,
37668,
41458,
53688,
38011,
36974,
38393,
36946,
38556,
36838,
37944,
37863,
44087,
38607,
38564,
43093,
40557,
38292,
37959,
37058,
36827,
36975,
36212,
35413,
35496,
34950,
34281,
33895,
33683,
33076,
32433,
31616,
31667,
31847,
31120,
30389,
29591,
29219,
28402,
28161,
27364,
26938,
26493,
25906,
25594,
25164,
25850,
34762,
28500,
23781,
23051,
22533,
21962,
21800,
21615,
23427,
39069,
181170,
123854,
22370,
18665,
17747,
17493,
17642,
17924,
16106,
15629,
14895,
15521,
17568,
18829,
18847,
43957,
94527,
30522,
18014,
15250,
10743,
10298,
9822,
9608,
9350,
9089,
8707,
8429,
8597,
8237,
7921,
10489,
14632,
8706,
8187,
8920,
7103,
5922,
5782,
5877,
5482,
5121,
4866,
4823,
4565,
4462,
4226,
4087,
3920,
3787,
3615,
3424,
3458,
3100,
2987,
2965,
2775,
2682,
2585,
2520,
2231,
2257,
2091,
1978,
1968,
1802,
1753,
1662,
1610,
1457,
1418,
1318,
1261,
1250,
1187,
1119,
989,
902,
896,
808,
758,
711,
665,
617,
576,
479,
504,
442,
399,
387,
326,
286,
272,
263,
215,
188,
156,
139,
111,
90,
56,
32,
17,
8,
14,
11,
13,
9,
19,
10,
7,
7,
4,
9,
6,
6,
3,
4,
5,
5,
3,
9,
2,
1,
4,
3,
4,
3,
4,
7,
4,
9,
3,
3,
2,
1,
2,
1,
2,
1,
2,
3,
1,
1,
1,
1,
0,
0,
1,
1,
0,
0,
1,
0,
1,
0,
0,
1,
0,
0,
1,
2,
2,
0,
2,
0,
0,
1,
1,
0,
0,
0,
0,
0,
1,
0,
0,
0,
0,
0,
1,
0,
0,
0,
0,
0,
0,
0,
0,
0,
0,
0,
0,
0,
0,
0,
0,
0,
0,
0,
0,
0,
0,
0,
0,
0,
0,
0,
0,
0,
0,
0,
0,
0,
0,
0,
0,
#ENDOFDATA   :