File: weave/spectra/BN std.msa
#FORMAT      : EMSA/MAS Spectral Data File
#VERSION     : 1.0
#TITLE       : BN std
#DATE        : 15-MAY-2018
#TIME        : 09:14
#OWNER       : Unknown
#NPOINTS     : 4096
#NCOLUMNS    : 1
#XUNITS      : eV
#YUNITS      : counts
#DATATYPE    : Y
#XPERCHAN    : 9.99856
#OFFSET      : 1.63032
#BEAMKV      : 25
#SIGNALTYPE  : EDS
#ELEVANGLE   : 35
#AZIMANGLE   : 0
#LIVETIME    : 1194.99
#REALTIME    : 1241.73
#PROBECUR    : 0.95197
#TDEADLYR    : 0
#TACTLYR     : 0.045
#TALWIND     : 0.003
#CHOFFSET    : 0.0
#XLABEL      : Energy (eV)
#YLABEL      : Counts
#EDSDET      : SDUTW
##SPECIMEN   : BN std
##D2STDCMP   : BN,(B:43.5617),(N:56.4384),5.0
##DET_HASH   : 97086dfe-e5c2-9c77-3984-1d0b14bbbf41
##CALIB_HASH : 1a36e884-c26d-3547-51b1-d0bb2efdf95a
##WORKING    : 16.99 mm
##SAMPLE     : <BulkSample id="1">\n<mOrientation id="2">\n<double>0.0</double>\n<double>0.0</double>\n<double>-1.0</double>\n</mOrientation>\n</BulkSample>
#SPECTRUM    :
19,
732,
12633,
64722,
4055,
4020,
5858,
8327,
11178,
13501,
15081,
15880,
16114,
16179,
14910,
14859,
14285,
13704,
13075,
12192,
11697,
11095,
10433,
9874,
9310,
9053,
8806,
8155,
7811,
7528,
7138,
6575,
6198,
6069,
5817,
5479,
5225,
5065,
4813,
4927,
4470,
4386,
4198,
3998,
3778,
3781,
3931,
3283,
3364,
3176,
3084,
2926,
2727,
2769,
2670,
2557,
2540,
2338,
2424,
2262,
2201,
2001,
1945,
2025,
1897,
1867,
1796,
1667,
1692,
1696,
1532,
1464,
1419,
1365,
1373,
1403,
1391,
1238,
1204,
1133,
1106,
1030,
1043,
989,
869,
926,
856,
855,
799,
795,
838,
716,
752,
642,
650,
574,
591,
525,
556,
502,
499,
486,
455,
459,
427,
420,
387,
360,
359,
289,
325,
320,
311,
309,
271,
235,
233,
207,
238,
218,
184,
173,
207,
154,
148,
145,
144,
140,
140,
126,
106,
118,
82,
97,
93,
85,
86,
72,
57,
50,
70,
56,
53,
41,
48,
45,
35,
41,
41,
40,
29,
32,
19,
26,
17,
14,
20,
16,
20,
15,
8,
10,
10,
7,
8,
3,
5,
10,
3,
8,
1,
3,
1,
3,
1,
0,
0,
0,
0,
0,
0,
0,
0,
0,
0,
0,
0,
0,
0,
0,
0,
0,
0,
0,
0,
0,
0,
0,
0,
0,
0,
0,
0,
0,
0,
0,
0,
0,
0,
0,
0,
0,
0,
0,
0,
0,
0,
0,
0,
0,
0,
0,
0,
0,
0,
0,
0,
0,
0,
0,
0,
0,
0,
0,
0,
0,
0,
0,
0,
0,
0,
0,
0,
0,
0,
0,
0,
0,
0,
0,
0,
0,
0,
0,
0,
0,
0,
0,
0,
0,
0,
0,
0,
0,
0,
0,
0,
0,
0,
0,
0,
0,
0,
0,
0,
0,
0,
0,
0,
0,
0,
0,
0,
0,
0,
0,
0,
0,
0,
0,
0,
0,
0,
0,
#ENDOFDATA   :