File: weave/spectra/C std.msa
#FORMAT      : EMSA/MAS Spectral Data File
#VERSION     : 1.0
#TITLE       : C std
#DATE        : 15-MAY-2018
#TIME        : 09:08
#OWNER       : Unknown
#NPOINTS     : 4096
#NCOLUMNS    : 1
#XUNITS      : eV
#YUNITS      : counts
#DATATYPE    : Y
#XPERCHAN    : 9.99856
#OFFSET      : 1.63032
#BEAMKV      : 25
#SIGNALTYPE  : EDS
#ELEVANGLE   : 35
#AZIMANGLE   : 0
#LIVETIME    : 1199.39
#REALTIME    : 1300
#PROBECUR    : 0.95221
#TDEADLYR    : 0
#TACTLYR     : 0.045
#TALWIND     : 0.003
#CHOFFSET    : 0.0
#XLABEL      : Energy (eV)
#YLABEL      : Counts
#EDSDET      : SDUTW
##SPECIMEN   : C std
##D2STDCMP   : C,(C:100.0),1.9
##DET_HASH   : 97086dfe-e5c2-9c77-3984-1d0b14bbbf41
##CALIB_HASH : 1a36e884-c26d-3547-51b1-d0bb2efdf95a
##WORKING    : 16.99 mm
##SAMPLE     : <BulkSample id="1">\n<mOrientation id="2">\n<double>0.0</double>\n<double>0.0</double>\n<double>-1.0</double>\n</mOrientation>\n</BulkSample>
#SPECTRUM    :
18,
196,
1257984,
6293,
8048,
4787,
6640,
9553,
12555,
14891,
16460,
17301,
20695,
17360,
15595,
15119,
14533,
14027,
13497,
12330,
11790,
11247,
10765,
10071,
9468,
9153,
8452,
8054,
7781,
7412,
6985,
6639,
6281,
6103,
5839,
5495,
5282,
5088,
5043,
4813,
4430,
4270,
4235,
4062,
3822,
3855,
4242,
3434,
3292,
3278,
3069,
2971,
2771,
2840,
2696,
2585,
2411,
2516,
2331,
2188,
2177,
2053,
2038,
1939,
1888,
1783,
1840,
1789,
1686,
1665,
1598,
1435,
1475,
1402,
1390,
1407,
1330,
1190,
1232,
1153,
1113,
1072,
1044,
997,
970,
918,
906,
820,
790,
800,
863,
753,
725,
682,
681,
800,
765,
557,
536,
501,
489,
477,
445,
493,
415,
405,
419,
425,
358,
369,
311,
331,
321,
303,
292,
265,
254,
256,
219,
212,
193,
164,
186,
180,
181,
143,
157,
135,
125,
121,
128,
99,
100,
96,
89,
80,
70,
63,
80,
72,
69,
60,
58,
52,
62,
43,
45,
41,
27,
39,
38,
29,
30,
21,
20,
30,
25,
27,
19,
19,
14,
18,
11,
11,
4,
13,
9,
7,
3,
7,
5,
4,
6,
2,
0,
1,
4,
0,
0,
0,
0,
1,
0,
0,
0,
0,
1,
0,
0,
0,
0,
0,
0,
0,
0,
0,
0,
0,
0,
0,
0,
0,
0,
0,
0,
0,
0,
0,
0,
0,
0,
0,
0,
0,
0,
0,
0,
0,
0,
0,
0,
0,
0,
0,
0,
0,
0,
0,
0,
0,
0,
0,
0,
0,
0,
0,
0,
0,
0,
0,
0,
0,
0,
0,
0,
0,
0,
0,
0,
0,
0,
0,
0,
0,
0,
0,
0,
0,
0,
0,
0,
0,
0,
0,
0,
0,
0,
0,
0,
0,
0,
0,
0,
0,
0,
0,
0,
0,
0,
0,
0,
0,
0,
0,
0,
0,
0,
0,
0,
0,
0,
0,
0,
0,
#ENDOFDATA   :