File: weave/XRF Stainless/Cu_50kv_50_ma_Rh_vac_D1.msa
#FORMAT      : EMSA/MAS SPECTRAL DATA FILE
#VERSION     : 1.0
#TITLE       : Bruker AXS spectrum Cu_50kv_50_ma_Rh_vac_D1.txt
#DATE        : 19-NOV-2019
#TIME        : 11:33
#OWNER       : Bruker AXS
#NPOINTS     : 4096.0
#NCOLUMNS    : 4.0
#XUNITS      : keV
#YUNITS      : Counts
#DATATYPE    : Y
#XPERCHAN    : 0.0099990
#OFFSET      : -0.9553045
#SIGNALTYPE  : EDS
#CHOFFSET    : 96
#LIVETIME  -s: 120.023
#REALTIME  -s: 138.147
##RTDET      : XFlash 430
#EDSDET      :
#TDEADLYR -cm: 0.000003
#TACTLYR  -cm: 0.045
##FANO       : 0.1135598
##MNFWHM -keV: 0.1439929
##IDENT      :
#SPECTRUM    :
         0.0,         0.0,         0.0,         0.0,
         0.0,         0.0,         0.0,         0.0,
         0.0,         0.0,         0.0,         0.0,
        12.0,        13.0,        18.0,        18.0,
    146993.0,    133971.0,    110672.0,     83219.0,
         0.0,         1.0,         0.0,         0.0,
        32.0,        35.0,        32.0,        25.0,
        14.0,         9.0,        14.0,         7.0,
       205.0,       172.0,       155.0,       138.0,
        12.0,        15.0,        17.0,        16.0,
        20.0,        23.0,        21.0,        31.0,
        14.0,        25.0,        27.0,        31.0,
        35.0,        37.0,        38.0,        36.0,
        38.0,        37.0,        37.0,        40.0,
        62.0,        57.0,        66.0,        64.0,
        76.0,        96.0,        94.0,       119.0,
       109.0,        96.0,        79.0,        79.0,
        43.0,        47.0,        41.0,        34.0,
       120.0,       117.0,       127.0,       119.0,
        52.0,        59.0,        63.0,        61.0,
       161.0,       159.0,       166.0,       151.0,
        43.0,        43.0,        46.0,        38.0,
        33.0,        33.0,        38.0,        43.0,
        35.0,        35.0,        35.0,        34.0,
        40.0,        31.0,        36.0,        42.0,
        59.0,        56.0,        48.0,        53.0,
       128.0,       128.0,       127.0,       144.0,
       156.0,       154.0,       162.0,       152.0,
       115.0,       106.0,        82.0,        98.0,
       101.0,       105.0,        99.0,       109.0,
       303.0,       303.0,       304.0,       313.0,
       404.0,       423.0,       423.0,       390.0,
       350.0,       352.0,       317.0,       304.0,
       265.0,       252.0,       269.0,       262.0,
       168.0,       174.0,       188.0,       185.0,
       491.0,       547.0,       551.0,       566.0,
       965.0,      1033.0,      1053.0,      1086.0,
     87392.0,    109362.0,    135016.0,    163075.0,
     73903.0,     56488.0,     42355.0,     31625.0,
       850.0,       836.0,       840.0,       845.0,
      1508.0,      1558.0,      1683.0,      1877.0,
     48113.0,     49125.0,     49441.0,     49172.0,
       581.0,       395.0,       277.0,       225.0,
        63.0,        69.0,        70.0,        71.0,
        64.0,        56.0,        57.0,        58.0,
        51.0,        48.0,        53.0,        49.0,
        43.0,        40.0,        50.0,        49.0,
        38.0,        38.0,        42.0,        40.0,
        36.0,        34.0,        23.0,        31.0,
        36.0,        35.0,        40.0,        38.0,
        57.0,        63.0,        66.0,        62.0,
        90.0,       100.0,        86.0,        78.0,
        82.0,        73.0,        83.0,        82.0,
        61.0,        60.0,        58.0,        57.0,
        45.0,        46.0,        42.0,        39.0,
        43.0,        36.0,        37.0,        33.0,
        39.0,        42.0,        46.0,        45.0,
        44.0,        46.0,        41.0,        38.0,
        34.0,        34.0,        36.0,        37.0,
        33.0,        32.0,        36.0,        35.0,
        42.0,        49.0,        39.0,        38.0,
        31.0,        36.0,        49.0,        49.0,
        46.0,        49.0,        50.0,        47.0,
        44.0,        38.0,        44.0,        46.0,
        25.0,        29.0,        34.0,        33.0,
        34.0,        34.0,        26.0,        24.0,
        23.0,        24.0,        26.0,        27.0,
        21.0,        23.0,        23.0,        20.0,
        25.0,        23.0,        24.0,        22.0,
        21.0,        21.0,        20.0,        15.0,
        14.0,        16.0,        10.0,        11.0,
         9.0,         8.0,         8.0,         7.0,
         8.0,        10.0,         8.0,        12.0,
        21.0,        25.0,        13.0,        18.0,
        10.0,         9.0,         8.0,         8.0,
        22.0,        26.0,        18.0,        10.0,
        21.0,        14.0,        25.0,        19.0,
        17.0,        17.0,        25.0,        21.0,
        11.0,        12.0,        14.0,        15.0,
        14.0,        11.0,        20.0,        20.0,
        21.0,        22.0,        14.0,        16.0,
        24.0,        23.0,        19.0,        23.0,
        21.0,        32.0,        26.0,        31.0,
        26.0,        31.0,        28.0,        36.0,
        22.0,        21.0,        29.0,        25.0,
        21.0,        18.0,        18.0,        17.0,
         7.0,        13.0,        11.0,        12.0,
        33.0,        36.0,        39.0,        43.0,
       143.0,       140.0,       155.0,       138.0,
        21.0,        28.0,        22.0,        14.0,
         6.0,         9.0,        13.0,         9.0,
         8.0,        11.0,        14.0,        11.0,
        10.0,         9.0,        10.0,         9.0,
        10.0,         8.0,         9.0,        10.0,
         5.0,         7.0,         7.0,        11.0,
         2.0,         9.0,         4.0,         7.0,
         4.0,         2.0,         1.0,         3.0,
         4.0,         6.0,         5.0,         3.0,
         7.0,         7.0,        12.0,        12.0,
        16.0,        16.0,         9.0,        10.0,
         2.0,         3.0,         2.0,         5.0,
         4.0,         5.0,         3.0,         2.0,
         1.0,         5.0,         2.0,         1.0,
         2.0,         2.0,         1.0,         0.0,
         0.0,         0.0,         0.0,         0.0,
         3.0,         3.0,         4.0,         3.0,
         2.0,         2.0,         2.0,         3.0,
         0.0,         0.0,         0.0,         0.0,
         0.0,         0.0,         1.0,         0.0,
         1.0,         2.0,         1.0,         0.0,
         5.0,         1.0,         0.0,         2.0,
         0.0,         1.0,         1.0,         2.0,
         1.0,         1.0,         2.0,         0.0,
         1.0,         1.0,         0.0,         0.0,
         1.0,         0.0,         0.0,         0.0,
         1.0,         1.0,         1.0,         1.0,
         0.0,         0.0,         0.0,         1.0,
         0.0,         1.0,         2.0,         2.0,
         0.0,         1.0,         1.0,         0.0,
         0.0,         1.0,         1.0,         1.0,
         0.0,         1.0,         1.0,         0.0,
         1.0,         0.0,         0.0,         1.0,
         1.0,         2.0,         1.0,         2.0,
         1.0,         1.0,         0.0,         0.0,
         1.0,         0.0,         0.0,         0.0,
         0.0,         0.0,         0.0,         0.0,
         0.0,         1.0,         1.0,         1.0,
         1.0,         1.0,         1.0,         0.0,
         1.0,         0.0,         1.0,         0.0,
         2.0,         1.0,         0.0,         0.0,
         0.0,         0.0,         0.0,         0.0,
         0.0,         0.0,         0.0,         0.0,
         0.0,         0.0,         1.0,         0.0,
         0.0,         1.0,         0.0,         0.0,
         0.0,         0.0,         0.0,         0.0,
         0.0,         0.0,         0.0,         0.0,
         0.0,         0.0,         0.0,         1.0,
         0.0,         1.0,         0.0,         0.0,
         0.0,         1.0,         1.0,         0.0,
         1.0,         0.0,         0.0,         0.0,
         0.0,         0.0,         0.0,         0.0,
         0.0,         0.0,         0.0,         0.0,
         0.0,         0.0,         0.0,         0.0,
         0.0,         0.0,         0.0,         0.0,
         0.0,         1.0,         2.0,         1.0,
         1.0,         0.0,         0.0,         1.0,
         0.0,         0.0,         0.0,         0.0,
         0.0,         1.0,         0.0,         0.0,
         0.0,         0.0,         0.0,         0.0,
         0.0,         0.0,         0.0,         0.0,
         0.0,         0.0,         1.0,         0.0,
         0.0,         0.0,         0.0,         0.0,
         0.0,         0.0,         0.0,         1.0,
         0.0,         0.0,         0.0,         0.0,
         0.0,         0.0,         0.0,         0.0,
         0.0,         1.0,         0.0,         2.0,
         0.0,         0.0,         0.0,         0.0,
         0.0,         2.0,         0.0,         0.0,
         0.0,         0.0,         0.0,         0.0,
         0.0,         0.0,         0.0,         0.0,
         0.0,         0.0,         0.0,         0.0,
         0.0,         1.0,         0.0,         0.0,
         0.0,         0.0,         0.0,         0.0,
         0.0,         0.0,         0.0,         0.0,
         0.0,         0.0,         0.0,         0.0,
         0.0,         0.0,         0.0,         1.0,
         0.0,         1.0,         0.0,         0.0,
         0.0,         0.0,         0.0,         0.0,
         0.0,         0.0,         0.0,         0.0,
         0.0,         0.0,         0.0,         0.0,
         0.0,         0.0,         0.0,         0.0,
         0.0,         0.0,         0.0,         0.0,
#ENDOFDATA   :