File: weave/XRF Stainless/Ti_50kv_50_ma_Rh_vac_D1.msa
#FORMAT      : EMSA/MAS SPECTRAL DATA FILE
#VERSION     : 1.0
#TITLE       : Bruker AXS spectrum Ti_50kv_50_ma_Rh_vac_D1.txt
#DATE        : 19-NOV-2019
#TIME        : 11:46
#OWNER       : Bruker AXS
#NPOINTS     : 4096.0
#NCOLUMNS    : 4.0
#XUNITS      : keV
#YUNITS      : Counts
#DATATYPE    : Y
#XPERCHAN    : 0.0099990
#OFFSET      : -0.9553045
#SIGNALTYPE  : EDS
#CHOFFSET    : 96
#LIVETIME  -s: 120.012
#REALTIME  -s: 128.039
##RTDET      : XFlash 430
#EDSDET      :
#TDEADLYR -cm: 0.000003
#TACTLYR  -cm: 0.045
##FANO       : 0.1135598
##MNFWHM -keV: 0.1439478
##IDENT      :
#SPECTRUM    :
         0.0,         0.0,         0.0,         0.0,
         0.0,         0.0,         0.0,         0.0,
         0.0,         0.0,         0.0,         0.0,
         6.0,         5.0,         5.0,         5.0,
    146848.0,    133827.0,    110158.0,     82723.0,
         0.0,         0.0,         0.0,         0.0,
        23.0,        25.0,        30.0,        23.0,
        15.0,        27.0,        27.0,        31.0,
        20.0,        16.0,        23.0,        37.0,
        32.0,        30.0,        23.0,        23.0,
        51.0,        41.0,        45.0,        48.0,
        76.0,        95.0,       113.0,       136.0,
        58.0,        58.0,        50.0,        56.0,
        62.0,        65.0,        56.0,        69.0,
        62.0,        62.0,        60.0,        63.0,
       489.0,       609.0,       646.0,       723.0,
       438.0,       463.0,       428.0,       420.0,
       261.0,       244.0,       228.0,       238.0,
        91.0,       104.0,       120.0,       118.0,
       145.0,       145.0,       157.0,       145.0,
       235.0,       218.0,       224.0,       240.0,
       163.0,       172.0,       160.0,       159.0,
      1751.0,      2600.0,      3775.0,      5611.0,
    144937.0,    119566.0,     95214.0,     73987.0,
      3928.0,      5124.0,      6719.0,      8703.0,
      4660.0,      3188.0,      2198.0,      1512.0,
        27.0,        21.0,        31.0,        33.0,
        97.0,        85.0,       100.0,        95.0,
        54.0,        47.0,        47.0,        49.0,
        22.0,        16.0,        16.0,        14.0,
        18.0,        20.0,        18.0,        24.0,
        26.0,        23.0,        19.0,        15.0,
        22.0,        21.0,        17.0,        24.0,
        36.0,        29.0,        27.0,        29.0,
        38.0,        36.0,        33.0,        35.0,
        49.0,        52.0,        54.0,        64.0,
        62.0,        57.0,        60.0,        59.0,
        69.0,        60.0,        49.0,        52.0,
       163.0,       183.0,       184.0,       170.0,
       195.0,       199.0,       208.0,       229.0,
       161.0,       163.0,       148.0,       141.0,
        71.0,        56.0,        50.0,        50.0,
        40.0,        51.0,        58.0,        61.0,
        45.0,        49.0,        48.0,        43.0,
        52.0,        44.0,        62.0,        60.0,
        65.0,        68.0,        65.0,        64.0,
        67.0,        71.0,        71.0,        68.0,
        57.0,        58.0,        66.0,        65.0,
        80.0,        89.0,        88.0,        87.0,
       120.0,       100.0,       103.0,       116.0,
       147.0,       144.0,       149.0,       145.0,
       125.0,       125.0,       123.0,       123.0,
       102.0,       108.0,       112.0,       104.0,
        99.0,        86.0,        82.0,        83.0,
        81.0,        91.0,        83.0,        77.0,
       105.0,        94.0,        81.0,        94.0,
       115.0,       106.0,       105.0,       114.0,
       106.0,       105.0,        94.0,       103.0,
        86.0,        83.0,        77.0,        81.0,
        69.0,        60.0,        60.0,        69.0,
        54.0,        59.0,        64.0,        67.0,
        69.0,        72.0,        69.0,        68.0,
        71.0,        76.0,        64.0,        59.0,
        68.0,        67.0,        62.0,        57.0,
        59.0,        68.0,        68.0,        51.0,
        46.0,        48.0,        57.0,        53.0,
        52.0,        55.0,        51.0,        58.0,
        57.0,        64.0,        56.0,        48.0,
        52.0,        62.0,        55.0,        40.0,
        36.0,        41.0,        49.0,        46.0,
        48.0,        40.0,        46.0,        47.0,
        27.0,        37.0,        39.0,        37.0,
        35.0,        37.0,        32.0,        36.0,
        42.0,        46.0,        33.0,        45.0,
        39.0,        41.0,        30.0,        36.0,
        30.0,        40.0,        34.0,        43.0,
        27.0,        28.0,        33.0,        30.0,
        25.0,        21.0,        27.0,        32.0,
        34.0,        37.0,        34.0,        35.0,
        34.0,        39.0,        37.0,        40.0,
        33.0,        36.0,        38.0,        40.0,
        45.0,        41.0,        37.0,        40.0,
        78.0,        72.0,        73.0,        66.0,
        74.0,        80.0,        94.0,        94.0,
        60.0,        57.0,        63.0,        72.0,
        33.0,        41.0,        30.0,        40.0,
        23.0,        16.0,        21.0,        26.0,
        39.0,        60.0,        56.0,        63.0,
       187.0,       199.0,       190.0,       192.0,
        41.0,        25.0,        33.0,        20.0,
        12.0,        12.0,         9.0,        15.0,
        16.0,        13.0,        16.0,        16.0,
        15.0,        20.0,        24.0,        12.0,
        18.0,        18.0,        18.0,        20.0,
        17.0,        19.0,        13.0,         6.0,
         8.0,        11.0,        10.0,        10.0,
        10.0,        12.0,         8.0,         6.0,
         7.0,         5.0,         4.0,         5.0,
        12.0,        13.0,        14.0,        15.0,
        17.0,        20.0,        12.0,        19.0,
         6.0,         6.0,         8.0,         6.0,
         6.0,         1.0,         6.0,         6.0,
         2.0,         3.0,         2.0,         2.0,
         5.0,         4.0,         2.0,         2.0,
         1.0,         2.0,         5.0,         4.0,
         4.0,         1.0,         1.0,         2.0,
         3.0,         4.0,         3.0,         1.0,
         0.0,         2.0,         1.0,         3.0,
         4.0,         3.0,         3.0,         1.0,
         4.0,         5.0,         2.0,         2.0,
         2.0,         3.0,         1.0,         0.0,
         2.0,         5.0,         5.0,         3.0,
         0.0,         0.0,         1.0,         0.0,
         0.0,         1.0,         1.0,         3.0,
         2.0,         1.0,         1.0,         2.0,
         2.0,         4.0,         1.0,         1.0,
         3.0,         1.0,         0.0,         1.0,
         3.0,         2.0,         0.0,         3.0,
         1.0,         1.0,         2.0,         2.0,
         0.0,         1.0,         0.0,         1.0,
         1.0,         2.0,         1.0,         1.0,
         1.0,         0.0,         1.0,         1.0,
         1.0,         1.0,         2.0,         1.0,
         0.0,         0.0,         0.0,         1.0,
         1.0,         2.0,         0.0,         0.0,
         0.0,         1.0,         0.0,         1.0,
         0.0,         1.0,         1.0,         0.0,
         1.0,         0.0,         1.0,         0.0,
         3.0,         1.0,         2.0,         1.0,
         0.0,         0.0,         1.0,         0.0,
         2.0,         1.0,         1.0,         1.0,
         0.0,         0.0,         0.0,         0.0,
         1.0,         0.0,         0.0,         0.0,
         1.0,         0.0,         2.0,         0.0,
         2.0,         0.0,         1.0,         1.0,
         0.0,         0.0,         0.0,         1.0,
         1.0,         1.0,         0.0,         0.0,
         1.0,         0.0,         1.0,         2.0,
         0.0,         0.0,         0.0,         0.0,
         0.0,         0.0,         0.0,         0.0,
         0.0,         1.0,         1.0,         0.0,
         0.0,         0.0,         1.0,         0.0,
         0.0,         0.0,         0.0,         0.0,
         0.0,         1.0,         0.0,         1.0,
         0.0,         0.0,         0.0,         0.0,
         0.0,         0.0,         0.0,         1.0,
         2.0,         0.0,         0.0,         1.0,
         0.0,         0.0,         0.0,         0.0,
         0.0,         1.0,         1.0,         0.0,
         2.0,         0.0,         0.0,         0.0,
         0.0,         0.0,         1.0,         0.0,
         0.0,         0.0,         0.0,         0.0,
         0.0,         0.0,         0.0,         0.0,
         0.0,         0.0,         0.0,         0.0,
         0.0,         0.0,         1.0,         0.0,
         1.0,         0.0,         0.0,         0.0,
         0.0,         0.0,         0.0,         0.0,
         0.0,         0.0,         0.0,         1.0,
         0.0,         0.0,         0.0,         0.0,
         0.0,         0.0,         0.0,         0.0,
         1.0,         0.0,         0.0,         0.0,
         0.0,         0.0,         0.0,         0.0,
         0.0,         0.0,         0.0,         0.0,
         0.0,         0.0,         0.0,         0.0,
         0.0,         0.0,         0.0,         1.0,
         0.0,         0.0,         0.0,         0.0,
         0.0,         0.0,         0.0,         0.0,
         0.0,         0.0,         0.0,         0.0,
         0.0,         0.0,         0.0,         0.0,
         0.0,         0.0,         0.0,         0.0,
         0.0,         0.0,         0.0,         1.0,
         0.0,         0.0,         0.0,         0.0,
#ENDOFDATA   :