File: weave/XRF Stainless/Zr_50kv_50_ma_Rh_vac_D1.msa
#FORMAT      : EMSA/MAS SPECTRAL DATA FILE
#VERSION     : 1.0
#TITLE       : Bruker AXS spectrum Zr_50kv_50_ma_Rh_vac_D1.txt
#DATE        : 19-NOV-2019
#TIME        : 11:22
#OWNER       : Bruker AXS
#NPOINTS     : 4096.0
#NCOLUMNS    : 4.0
#XUNITS      : keV
#YUNITS      : Counts
#DATATYPE    : Y
#XPERCHAN    : 0.0099990
#OFFSET      : -0.9553045
#SIGNALTYPE  : EDS
#CHOFFSET    : 96
#LIVETIME  -s: 120.021
#REALTIME  -s: 126.540
##RTDET      : XFlash 430
#EDSDET      :
#TDEADLYR -cm: 0.000003
#TACTLYR  -cm: 0.045
##FANO       : 0.1135598
##MNFWHM -keV: 0.1439831
##IDENT      : ZrHfPdFeCaMnCoNi
#SPECTRUM    :
         0.0,         0.0,         0.0,         0.0,
         0.0,         0.0,         0.0,         0.0,
         0.0,         0.0,         0.0,         0.0,
         9.0,         9.0,        11.0,        14.0,
    146543.0,    133677.0,    110419.0,     82742.0,
         2.0,         2.0,         2.0,         5.0,
       200.0,       178.0,       162.0,       163.0,
       190.0,       211.0,       208.0,       221.0,
       131.0,       150.0,       132.0,       134.0,
        87.0,        93.0,        85.0,        86.0,
        75.0,        69.0,        70.0,        75.0,
       303.0,       323.0,       338.0,       340.0,
       757.0,      1026.0,      1499.0,      2272.0,
      6690.0,      5658.0,      4809.0,      4090.0,
        57.0,        56.0,        63.0,        54.0,
       251.0,       312.0,       385.0,       444.0,
       766.0,       678.0,       580.0,       487.0,
        17.0,        16.0,        19.0,        14.0,
        14.0,        19.0,        19.0,        12.0,
        34.0,        39.0,        36.0,        47.0,
        18.0,        14.0,        17.0,        12.0,
        18.0,        17.0,        19.0,        21.0,
        38.0,        42.0,        40.0,        34.0,
        53.0,        65.0,        63.0,        56.0,
       117.0,       145.0,       136.0,       144.0,
       120.0,       118.0,       109.0,        95.0,
       102.0,        92.0,        96.0,        85.0,
        37.0,        38.0,        48.0,        45.0,
        58.0,        55.0,        68.0,        66.0,
        79.0,        87.0,        84.0,        85.0,
       118.0,       126.0,       154.0,       166.0,
       349.0,       295.0,       271.0,       238.0,
       152.0,       145.0,       163.0,       167.0,
       375.0,       376.0,       399.0,       376.0,
       249.0,       256.0,       253.0,       246.0,
       341.0,       343.0,       334.0,       324.0,
       219.0,       242.0,       262.0,       290.0,
      2698.0,      2540.0,      2278.0,      2037.0,
       289.0,       274.0,       279.0,       247.0,
       328.0,       323.0,       334.0,       320.0,
       316.0,       314.0,       321.0,       325.0,
       773.0,       828.0,       917.0,      1048.0,
      1220.0,      1121.0,      1061.0,      1012.0,
      1034.0,      1002.0,       928.0,       895.0,
       354.0,       339.0,       362.0,       382.0,
       253.0,       264.0,       256.0,       242.0,
       225.0,       206.0,       218.0,       221.0,
       249.0,       265.0,       247.0,       255.0,
       542.0,       518.0,       504.0,       503.0,
       380.0,       391.0,       412.0,       418.0,
       296.0,       295.0,       300.0,       301.0,
       306.0,       316.0,       323.0,       313.0,
       305.0,       305.0,       292.0,       302.0,
       274.0,       273.0,       274.0,       265.0,
       236.0,       218.0,       224.0,       237.0,
       199.0,       186.0,       179.0,       186.0,
       203.0,       197.0,       174.0,       172.0,
       205.0,       193.0,       199.0,       204.0,
       201.0,       197.0,       195.0,       214.0,
       199.0,       196.0,       198.0,       201.0,
       202.0,       201.0,       195.0,       181.0,
       174.0,       174.0,       168.0,       171.0,
       172.0,       164.0,       150.0,       141.0,
       150.0,       145.0,       145.0,       167.0,
       153.0,       148.0,       150.0,       156.0,
       161.0,       159.0,       180.0,       165.0,
       213.0,       233.0,       252.0,       243.0,
       275.0,       265.0,       270.0,       252.0,
       459.0,       468.0,       500.0,       526.0,
     24532.0,     28001.0,     31640.0,     35335.0,
     42672.0,     38677.0,     34677.0,     30761.0,
       433.0,       361.0,       292.0,       269.0,
       154.0,       126.0,       137.0,       132.0,
       128.0,       142.0,       103.0,       106.0,
       122.0,       134.0,       141.0,       126.0,
       119.0,       148.0,       123.0,       123.0,
       191.0,       170.0,       181.0,       190.0,
      3338.0,      3899.0,      4404.0,      4843.0,
      5671.0,      5124.0,      4586.0,      4133.0,
      1319.0,      1247.0,      1169.0,      1104.0,
        33.0,        20.0,        27.0,        27.0,
        10.0,         9.0,         8.0,         7.0,
        14.0,        12.0,        13.0,        13.0,
        15.0,        18.0,         7.0,        13.0,
         9.0,        14.0,        16.0,        13.0,
         8.0,         6.0,         9.0,         8.0,
         8.0,         6.0,         5.0,         4.0,
        13.0,        15.0,        21.0,        22.0,
        88.0,        57.0,        69.0,        72.0,
        12.0,        13.0,         6.0,        13.0,
         4.0,         1.0,         3.0,         0.0,
         3.0,         5.0,         1.0,         7.0,
         1.0,         5.0,         7.0,         2.0,
         7.0,         3.0,         7.0,         3.0,
         5.0,         3.0,         2.0,         5.0,
         1.0,         3.0,         2.0,         9.0,
         3.0,         1.0,         1.0,         3.0,
         2.0,         3.0,         2.0,         2.0,
         4.0,         4.0,         3.0,         7.0,
         6.0,         4.0,         2.0,         8.0,
         2.0,         0.0,         0.0,         2.0,
         1.0,         3.0,         3.0,         5.0,
         0.0,         0.0,         0.0,         2.0,
         0.0,         0.0,         0.0,         0.0,
         1.0,         1.0,         1.0,         0.0,
         0.0,         1.0,         1.0,         1.0,
         0.0,         1.0,         0.0,         0.0,
         1.0,         2.0,         0.0,         0.0,
         0.0,         0.0,         1.0,         0.0,
         0.0,         0.0,         0.0,         0.0,
         0.0,         1.0,         0.0,         1.0,
         0.0,         1.0,         0.0,         0.0,
         1.0,         0.0,         0.0,         0.0,
         0.0,         0.0,         0.0,         0.0,
         0.0,         0.0,         0.0,         3.0,
         0.0,         1.0,         3.0,         1.0,
         2.0,         1.0,         0.0,         0.0,
         1.0,         0.0,         1.0,         0.0,
         2.0,         0.0,         0.0,         1.0,
         2.0,         0.0,         1.0,         1.0,
         0.0,         0.0,         0.0,         0.0,
         1.0,         2.0,         1.0,         1.0,
         0.0,         1.0,         0.0,         0.0,
         0.0,         0.0,         0.0,         0.0,
         0.0,         0.0,         2.0,         1.0,
         0.0,         0.0,         2.0,         1.0,
         1.0,         2.0,         1.0,         2.0,
         0.0,         1.0,         0.0,         0.0,
         1.0,         0.0,         0.0,         2.0,
         0.0,         0.0,         0.0,         0.0,
         0.0,         0.0,         0.0,         1.0,
         1.0,         0.0,         0.0,         0.0,
         0.0,         1.0,         0.0,         0.0,
         2.0,         2.0,         3.0,         3.0,
         2.0,         1.0,         1.0,         2.0,
         1.0,         1.0,         2.0,         1.0,
         1.0,         1.0,         1.0,         1.0,
         1.0,         0.0,         2.0,         1.0,
         2.0,         2.0,         2.0,         2.0,
         0.0,         0.0,         0.0,         0.0,
         0.0,         0.0,         0.0,         0.0,
         0.0,         0.0,         0.0,         0.0,
         0.0,         0.0,         0.0,         0.0,
         0.0,         0.0,         0.0,         0.0,
         0.0,         0.0,         0.0,         0.0,
         0.0,         0.0,         0.0,         0.0,
         0.0,         0.0,         0.0,         0.0,
         1.0,         0.0,         0.0,         0.0,
         0.0,         1.0,         0.0,         0.0,
         0.0,         0.0,         0.0,         0.0,
         0.0,         0.0,         0.0,         0.0,
         0.0,         0.0,         0.0,         2.0,
         0.0,         0.0,         0.0,         0.0,
         0.0,         0.0,         0.0,         0.0,
         0.0,         0.0,         0.0,         0.0,
         0.0,         0.0,         0.0,         0.0,
         0.0,         0.0,         0.0,         0.0,
         0.0,         0.0,         0.0,         0.0,
         1.0,         0.0,         0.0,         0.0,
         0.0,         0.0,         0.0,         0.0,
         0.0,         0.0,         0.0,         0.0,
         0.0,         0.0,         0.0,         0.0,
         0.0,         0.0,         1.0,         0.0,
         0.0,         0.0,         0.0,         0.0,
         0.0,         0.0,         0.0,         0.0,
         0.0,         0.0,         0.0,         0.0,
         0.0,         0.0,         0.0,         0.0,
         0.0,         0.0,         0.0,         0.0,
         1.0,         0.0,         0.0,         0.0,
         0.0,         0.0,         0.0,         0.0,
         0.0,         0.0,         0.0,         0.0,
         0.0,         0.0,         0.0,         0.0,
#ENDOFDATA   :