File: weave/K412 spectra/CaF2 std.msa
#FORMAT      : EMSA/MAS Spectral Data File
#VERSION     : 1.0
#TITLE       : CaF2 std
#DATE        : 07-MAY-2019
#TIME        : 02:23
#OWNER       : Unknown
#NPOINTS     : 4096
#NCOLUMNS    : 1
#XUNITS      : eV
#YUNITS      : counts
#DATATYPE    : Y
#XPERCHAN    : 9.99856
#OFFSET      : 1.63032
#BEAMKV      : 20
#SIGNALTYPE  : EDS
#ELEVANGLE   : 35
#AZIMANGLE   : 0
#LIVETIME    : 1176.1
#REALTIME    : 1456.12
#PROBECUR    : 1.10989
#TDEADLYR    : 0
#TACTLYR     : 0.045
#TALWIND     : 0.003
#CHOFFSET    : 0.0
#XLABEL      : Energy (eV)
#YLABEL      : Counts
#EDSDET      : SDUTW
##SPECIMEN   : CaF2 std
##D2STDCMP   : CaF2,(F:48.6667),(Ca:51.3333),3.18
##DET_HASH   : 97086dfe-e5c2-9c77-3984-1d0b14bbbf41
##CALIB_HASH : 1a36e884-c26d-3547-51b1-d0bb2efdf95a
##WORKING    : 17.0 mm
##SAMPLE     : <BulkSample id="1">\n<mOrientation id="2">\n<double>0.0</double>\n<double>0.0</double>\n<double>-1.0</double>\n</mOrientation>\n</BulkSample>
##CONDCOATING: 10.000 nm of Pure Carbon,(C:100.0),1.9
#SPECTRUM    :
27,
51,
54001,
8462,
15381,
405840,
12356,
15534,
19808,
24666,
27354,
29066,
29498,
31676,
49857,
29550,
30752,
28273,
27173,
26460,
25587,
25090,
24638,
24121,
22369,
27969,
968081,
344012,
55353,
166840,
12535,
14074,
12013,
11490,
11208,
11113,
10699,
10236,
10353,
9938,
9598,
9306,
9136,
8803,
8411,
8436,
8337,
7663,
7455,
7454,
6989,
6826,
7330,
9209,
6301,
6658,
5875,
5631,
5416,
5236,
5112,
4904,
4769,
4484,
4502,
4371,
4150,
4053,
3903,
3764,
3602,
3568,
3468,
3359,
3086,
3319,
2945,
2826,
2794,
2677,
2481,
2529,
2386,
2286,
2233,
2108,
2088,
1914,
1899,
1832,
1776,
1629,
1495,
1548,
1446,
1362,
1302,
1167,
1232,
1180,
1066,
1019,
988,
918,
861,
820,
781,
770,
695,
670,
601,
609,
551,
515,
436,
495,
419,
367,
353,
334,
317,
297,
275,
232,
246,
197,
205,
175,
160,
132,
131,
106,
109,
100,
75,
65,
48,
43,
33,
30,
20,
16,
4,
2,
1,
1,
1,
1,
2,
1,
2,
0,
0,
1,
2,
0,
1,
1,
0,
1,
0,
2,
0,
0,
0,
0,
1,
0,
1,
0,
0,
0,
1,
0,
0,
0,
1,
0,
0,
0,
0,
1,
0,
0,
0,
0,
0,
0,
0,
0,
0,
0,
0,
0,
0,
0,
0,
0,
0,
0,
0,
0,
0,
0,
0,
0,
0,
0,
0,
0,
0,
0,
0,
0,
0,
0,
1,
0,
0,
0,
0,
0,
0,
0,
0,
0,
0,
0,
0,
0,
0,
0,
0,
0,
0,
0,
0,
0,
0,
0,
0,
0,
0,
0,
0,
0,
0,
0,
0,
0,
0,
0,
0,
0,
0,
0,
0,
0,
0,
0,
0,
0,
0,
0,
0,
0,
0,
0,
0,
0,
0,
0,
0,
0,
0,
0,
0,
0,
0,
0,
0,
0,
0,
0,
0,
0,
0,
0,
0,
0,
0,
0,
0,
0,
#ENDOFDATA   :