File: weave/K412 spectra/III-E K412[1][4].msa
#FORMAT      : EMSA/MAS Spectral Data File
#VERSION     : 1.0
#TITLE       : III-E K412[1][all]
#DATE        : 07-MAY-2019
#TIME        : 01:53
#OWNER       : Unknown
#NPOINTS     : 4096
#NCOLUMNS    : 1
#XUNITS      : eV
#YUNITS      : counts
#DATATYPE    : Y
#XPERCHAN    : 9.99856
#OFFSET      : 1.63032
#BEAMKV      : 20
#SIGNALTYPE  : EDS
#ELEVANGLE   : 35
#AZIMANGLE   : 0
#LIVETIME    : 235.433
#REALTIME    : 286.218
#PROBECUR    : 1.11355
#TDEADLYR    : 0
#TACTLYR     : 0.045
#TALWIND     : 0.003
#CHOFFSET    : 0.0
#XLABEL      : Energy (eV)
#YLABEL      : Counts
#XPOSITION   : -5.83953
#YPOSITION   : -12.39875
#ZPOSITION   : 31.37
#EDSDET      : SDUTW
##SPECIMEN   : III-E K412[1][all]
##D2STDCMP   : K412,(O:42.758),(Mg:11.6567),(Al:4.9061),(Si:21.1982),(Ca:10.899),(Fe:7.7742),3.5
##DET_HASH   : 97086dfe-e5c2-9c77-3984-1d0b14bbbf41
##CALIB_HASH : 1a36e884-c26d-3547-51b1-d0bb2efdf95a
##WORKING    : 17.0 mm
#SPECTRUM    :
1,
7,
6096,
3063,
38193,
8603,
3009,
4070,
5685,
123291,
7265,
20659,
56438,
30592,
4667,
3803,
4223,
3955,
3936,
3766,
3673,
3698,
3682,
3519,
3309,
3593,
39284,
15417,
4330,
8394,
2514,
2328,
2291,
2293,
2193,
2041,
2018,
2018,
1849,
1916,
1761,
1697,
1709,
1667,
1553,
5525,
16115,
1469,
1262,
1346,
2811,
2083,
1100,
1067,
1073,
965,
960,
902,
958,
869,
873,
817,
782,
745,
737,
715,
702,
700,
642,
636,
591,
601,
579,
519,
520,
510,
449,
432,
442,
444,
404,
405,
392,
374,
340,
364,
331,
321,
325,
284,
291,
279,
235,
252,
218,
216,
204,
177,
176,
195,
201,
161,
175,
126,
129,
146,
121,
123,
94,
83,
103,
89,
75,
87,
78,
79,
52,
53,
57,
49,
49,
40,
49,
28,
37,
30,
33,
26,
28,
30,
19,
12,
18,
7,
13,
12,
2,
8,
6,
4,
5,
1,
2,
0,
0,
1,
0,
1,
0,
0,
0,
0,
0,
0,
0,
0,
0,
0,
0,
0,
0,
0,
0,
0,
1,
0,
0,
0,
0,
0,
0,
0,
0,
0,
0,
0,
0,
0,
0,
0,
0,
0,
0,
0,
0,
0,
0,
0,
0,
0,
0,
0,
0,
0,
0,
0,
0,
0,
0,
0,
0,
0,
0,
0,
0,
0,
0,
0,
0,
0,
0,
0,
0,
0,
0,
0,
0,
0,
0,
0,
0,
0,
0,
0,
0,
0,
0,
0,
0,
0,
0,
0,
0,
0,
0,
0,
0,
0,
0,
0,
0,
0,
0,
0,
0,
0,
0,
0,
0,
0,
0,
0,
0,
0,
0,
0,
0,
0,
0,
0,
0,
0,
0,
0,
0,
0,
0,
0,
0,
0,
0,
0,
0,
0,
0,
0,
0,
0,
0,
0,
0,
0,
0,
0,
0,
0,
0,
0,
0,
0,
0,
0,
0,
0,
#ENDOFDATA   :