File: weave/K412 spectra/III-E K412[0][4].msa
#FORMAT      : EMSA/MAS Spectral Data File
#VERSION     : 1.0
#TITLE       : III-E K412[0][all]
#DATE        : 07-MAY-2019
#TIME        : 01:51
#OWNER       : Unknown
#NPOINTS     : 4096
#NCOLUMNS    : 1
#XUNITS      : eV
#YUNITS      : counts
#DATATYPE    : Y
#XPERCHAN    : 9.99856
#OFFSET      : 1.63032
#BEAMKV      : 20
#SIGNALTYPE  : EDS
#ELEVANGLE   : 35
#AZIMANGLE   : 0
#LIVETIME    : 235.484
#REALTIME    : 286.279
#PROBECUR    : 1.11355
#TDEADLYR    : 0
#TACTLYR     : 0.045
#TALWIND     : 0.003
#CHOFFSET    : 0.0
#XLABEL      : Energy (eV)
#YLABEL      : Counts
#XPOSITION   : -5.89156
#YPOSITION   : -12.39531
#ZPOSITION   : 31.37
#EDSDET      : SDUTW
##SPECIMEN   : III-E K412[0][all]
##D2STDCMP   : K412,(O:42.758),(Mg:11.6567),(Al:4.9061),(Si:21.1982),(Ca:10.899),(Fe:7.7742),3.5
##DET_HASH   : 97086dfe-e5c2-9c77-3984-1d0b14bbbf41
##CALIB_HASH : 1a36e884-c26d-3547-51b1-d0bb2efdf95a
##WORKING    : 17.0 mm
#SPECTRUM    :
4,
8,
6080,
3061,
38303,
8648,
2941,
4012,
5533,
122969,
7272,
20673,
56680,
30053,
4555,
3865,
4241,
3894,
3892,
3836,
3690,
3790,
3580,
3645,
3423,
3548,
39939,
15313,
4208,
8571,
2527,
2278,
2292,
2369,
2116,
2066,
2001,
1958,
1881,
1944,
1762,
1637,
1810,
1568,
1512,
5574,
15642,
1551,
1288,
1289,
2749,
2019,
1072,
1136,
1083,
1063,
988,
954,
891,
879,
835,
802,
818,
806,
789,
713,
705,
713,
690,
657,
598,
595,
556,
551,
507,
509,
525,
495,
456,
446,
408,
375,
423,
366,
334,
328,
329,
302,
285,
310,
294,
275,
252,
227,
205,
200,
210,
189,
197,
186,
186,
164,
176,
151,
124,
120,
125,
130,
107,
86,
89,
79,
96,
87,
69,
69,
62,
66,
51,
53,
63,
61,
41,
51,
37,
36,
27,
26,
26,
12,
23,
12,
16,
23,
8,
8,
8,
8,
6,
4,
5,
2,
2,
0,
0,
1,
0,
1,
0,
0,
0,
1,
0,
0,
0,
0,
0,
0,
0,
0,
0,
0,
0,
0,
0,
0,
0,
0,
0,
0,
0,
0,
0,
0,
0,
0,
0,
0,
0,
0,
0,
0,
0,
0,
0,
0,
0,
0,
0,
0,
0,
0,
0,
0,
0,
0,
0,
0,
0,
0,
0,
0,
0,
0,
0,
0,
0,
0,
0,
0,
0,
0,
0,
0,
0,
0,
0,
0,
0,
0,
0,
0,
0,
0,
0,
0,
0,
0,
0,
0,
0,
0,
0,
0,
0,
0,
0,
0,
0,
0,
0,
0,
0,
0,
0,
0,
0,
0,
0,
0,
0,
0,
0,
0,
0,
0,
0,
0,
0,
0,
0,
0,
0,
0,
0,
0,
0,
0,
0,
0,
0,
0,
0,
0,
0,
0,
0,
0,
0,
0,
0,
0,
0,
0,
0,
0,
0,
0,
0,
0,
0,
0,
0,
0,
#ENDOFDATA   :